Name1      Name2           Long(deg)              Lati(deg)
038       000                     84.033            27.238
039       000                     84.033            27.171
033       001                     84.100            27.571
034       001                     84.100            27.504
035       001                     84.100            27.438
036       001                     84.100            27.371
037       001                     84.100            27.304
038       001                     84.100            27.238
039       001                     84.100            27.171
027       002                     84.167            27.971
028       002                     84.167            27.904
029       002                     84.167            27.838
030       002                     84.167            27.771
031       002                     84.167            27.704
032       002                     84.167            27.638
033       002                     84.167            27.571
034       002                     84.167            27.504
035       002                     84.167            27.438
036       002                     84.167            27.371
037       002                     84.167            27.304
038       002                     84.167            27.238
039       002                     84.167            27.171
021       003                     84.233            28.371
022       003                     84.233            28.304
023       003                     84.233            28.238
024       003                     84.233            28.171
025       003                     84.233            28.104
026       003                     84.233            28.038
027       003                     84.233            27.971
028       003                     84.233            27.904
029       003                     84.233            27.838
030       003                     84.233            27.771
031       003                     84.233            27.704
032       003                     84.233            27.638
033       003                     84.233            27.571
034       003                     84.233            27.504
035       003                     84.233            27.438
036       003                     84.233            27.371
037       003                     84.233            27.304
038       003                     84.233            27.238
039       003                     84.233            27.171
018       004                     84.300            28.571
019       004                     84.300            28.504
020       004                     84.300            28.438
021       004                     84.300            28.371
022       004                     84.300            28.304
023       004                     84.300            28.238
024       004                     84.300            28.171
025       004                     84.300            28.104
026       004                     84.300            28.038
027       004                     84.300            27.971
028       004                     84.300            27.904
029       004                     84.300            27.838
030       004                     84.300            27.771
031       004                     84.300            27.704
032       004                     84.300            27.638
033       004                     84.300            27.571
034       004                     84.300            27.504
035       004                     84.300            27.438
036       004                     84.300            27.371
037       004                     84.300            27.304
038       004                     84.300            27.238
039       004                     84.300            27.171
040       004                     84.300            27.104
008       005                     84.367            29.238
009       005                     84.367            29.171
010       005                     84.367            29.104
011       005                     84.367            29.038
012       005                     84.367            28.971
017       005                     84.367            28.638
018       005                     84.367            28.571
019       005                     84.367            28.504
020       005                     84.367            28.438
021       005                     84.367            28.371
022       005                     84.367            28.304
023       005                     84.367            28.238
024       005                     84.367            28.171
025       005                     84.367            28.104
026       005                     84.367            28.038
027       005                     84.367            27.971
028       005                     84.367            27.904
029       005                     84.367            27.838
030       005                     84.367            27.771
031       005                     84.367            27.704
032       005                     84.367            27.638
033       005                     84.367            27.571
034       005                     84.367            27.504
035       005                     84.367            27.438
036       005                     84.367            27.371
037       005                     84.367            27.304
038       005                     84.367            27.238
039       005                     84.367            27.171
040       005                     84.367            27.104
003       006                     84.433            29.571
004       006                     84.433            29.504
005       006                     84.433            29.438
006       006                     84.433            29.371
007       006                     84.433            29.304
008       006                     84.433            29.238
009       006                     84.433            29.171
010       006                     84.433            29.104
011       006                     84.433            29.038
012       006                     84.433            28.971
013       006                     84.433            28.904
017       006                     84.433            28.638
018       006                     84.433            28.571
019       006                     84.433            28.504
020       006                     84.433            28.438
021       006                     84.433            28.371
022       006                     84.433            28.304
023       006                     84.433            28.238
024       006                     84.433            28.171
025       006                     84.433            28.104
026       006                     84.433            28.038
027       006                     84.433            27.971
028       006                     84.433            27.904
029       006                     84.433            27.838
030       006                     84.433            27.771
031       006                     84.433            27.704
032       006                     84.433            27.638
033       006                     84.433            27.571
034       006                     84.433            27.504
035       006                     84.433            27.438
036       006                     84.433            27.371
037       006                     84.433            27.304
038       006                     84.433            27.238
039       006                     84.433            27.171
040       006                     84.433            27.104
001       007                     84.500            29.704
002       007                     84.500            29.638
003       007                     84.500            29.571
004       007                     84.500            29.504
005       007                     84.500            29.438
006       007                     84.500            29.371
007       007                     84.500            29.304
008       007                     84.500            29.238
009       007                     84.500            29.171
010       007                     84.500            29.104
011       007                     84.500            29.038
012       007                     84.500            28.971
013       007                     84.500            28.904
020       007                     84.500            28.438
021       007                     84.500            28.371
022       007                     84.500            28.304
023       007                     84.500            28.238
024       007                     84.500            28.171
025       007                     84.500            28.104
026       007                     84.500            28.038
027       007                     84.500            27.971
028       007                     84.500            27.904
029       007                     84.500            27.838
030       007                     84.500            27.771
031       007                     84.500            27.704
032       007                     84.500            27.638
033       007                     84.500            27.571
034       007                     84.500            27.504
035       007                     84.500            27.438
036       007                     84.500            27.371
037       007                     84.500            27.304
038       007                     84.500            27.238
039       007                     84.500            27.171
040       007                     84.500            27.104
001       008                     84.567            29.704
002       008                     84.567            29.638
003       008                     84.567            29.571
004       008                     84.567            29.504
005       008                     84.567            29.438
006       008                     84.567            29.371
007       008                     84.567            29.304
008       008                     84.567            29.238
009       008                     84.567            29.171
010       008                     84.567            29.104
011       008                     84.567            29.038
012       008                     84.567            28.971
013       008                     84.567            28.904
022       008                     84.567            28.304
023       008                     84.567            28.238
024       008                     84.567            28.171
025       008                     84.567            28.104
026       008                     84.567            28.038
027       008                     84.567            27.971
028       008                     84.567            27.904
029       008                     84.567            27.838
030       008                     84.567            27.771
031       008                     84.567            27.704
032       008                     84.567            27.638
033       008                     84.567            27.571
034       008                     84.567            27.504
035       008                     84.567            27.438
036       008                     84.567            27.371
037       008                     84.567            27.304
038       008                     84.567            27.238
039       008                     84.567            27.171
040       008                     84.567            27.104
001       009                     84.633            29.704
002       009                     84.633            29.638
003       009                     84.633            29.571
004       009                     84.633            29.504
005       009                     84.633            29.438
006       009                     84.633            29.371
007       009                     84.633            29.304
008       009                     84.633            29.238
009       009                     84.633            29.171
010       009                     84.633            29.104
011       009                     84.633            29.038
012       009                     84.633            28.971
013       009                     84.633            28.904
015       009                     84.633            28.771
022       009                     84.633            28.304
023       009                     84.633            28.238
024       009                     84.633            28.171
025       009                     84.633            28.104
026       009                     84.633            28.038
027       009                     84.633            27.971
028       009                     84.633            27.904
029       009                     84.633            27.838
030       009                     84.633            27.771
031       009                     84.633            27.704
032       009                     84.633            27.638
033       009                     84.633            27.571
034       009                     84.633            27.504
035       009                     84.633            27.438
036       009                     84.633            27.371
037       009                     84.633            27.304
038       009                     84.633            27.238
039       009                     84.633            27.171
040       009                     84.633            27.104
001       010                     84.700            29.704
002       010                     84.700            29.638
003       010                     84.700            29.571
004       010                     84.700            29.504
005       010                     84.700            29.438
006       010                     84.700            29.371
007       010                     84.700            29.304
008       010                     84.700            29.238
009       010                     84.700            29.171
010       010                     84.700            29.104
011       010                     84.700            29.038
012       010                     84.700            28.971
013       010                     84.700            28.904
015       010                     84.700            28.771
018       010                     84.700            28.571
022       010                     84.700            28.304
023       010                     84.700            28.238
024       010                     84.700            28.171
025       010                     84.700            28.104
026       010                     84.700            28.038
027       010                     84.700            27.971
028       010                     84.700            27.904
029       010                     84.700            27.838
030       010                     84.700            27.771
031       010                     84.700            27.704
032       010                     84.700            27.638
033       010                     84.700            27.571
034       010                     84.700            27.504
035       010                     84.700            27.438
036       010                     84.700            27.371
037       010                     84.700            27.304
038       010                     84.700            27.238
039       010                     84.700            27.171
040       010                     84.700            27.104
001       011                     84.767            29.704
002       011                     84.767            29.638
003       011                     84.767            29.571
004       011                     84.767            29.504
005       011                     84.767            29.438
006       011                     84.767            29.371
007       011                     84.767            29.304
008       011                     84.767            29.238
009       011                     84.767            29.171
010       011                     84.767            29.104
011       011                     84.767            29.038
012       011                     84.767            28.971
013       011                     84.767            28.904
014       011                     84.767            28.838
015       011                     84.767            28.771
016       011                     84.767            28.704
018       011                     84.767            28.571
019       011                     84.767            28.504
022       011                     84.767            28.304
023       011                     84.767            28.238
024       011                     84.767            28.171
025       011                     84.767            28.104
026       011                     84.767            28.038
027       011                     84.767            27.971
028       011                     84.767            27.904
029       011                     84.767            27.838
030       011                     84.767            27.771
031       011                     84.767            27.704
032       011                     84.767            27.638
033       011                     84.767            27.571
034       011                     84.767            27.504
035       011                     84.767            27.438
036       011                     84.767            27.371
037       011                     84.767            27.304
038       011                     84.767            27.238
039       011                     84.767            27.171
040       011                     84.767            27.104
041       011                     84.767            27.038
001       012                     84.833            29.704
002       012                     84.833            29.638
003       012                     84.833            29.571
004       012                     84.833            29.504
005       012                     84.833            29.438
006       012                     84.833            29.371
007       012                     84.833            29.304
008       012                     84.833            29.238
009       012                     84.833            29.171
010       012                     84.833            29.104
011       012                     84.833            29.038
012       012                     84.833            28.971
013       012                     84.833            28.904
016       012                     84.833            28.704
018       012                     84.833            28.571
019       012                     84.833            28.504
020       012                     84.833            28.438
021       012                     84.833            28.371
022       012                     84.833            28.304
025       012                     84.833            28.104
026       012                     84.833            28.038
027       012                     84.833            27.971
028       012                     84.833            27.904
029       012                     84.833            27.838
030       012                     84.833            27.771
031       012                     84.833            27.704
032       012                     84.833            27.638
033       012                     84.833            27.571
034       012                     84.833            27.504
035       012                     84.833            27.438
036       012                     84.833            27.371
037       012                     84.833            27.304
038       012                     84.833            27.238
039       012                     84.833            27.171
040       012                     84.833            27.104
041       012                     84.833            27.038
001       013                     84.900            29.704
002       013                     84.900            29.638
